File: test_trajectories/cyclic_voltammetry/biologic2.txt
Ewe/V	<I>/mA	cycle number	time/s
0.126137	0.00147758	1	576.767
0.136145	0.00190647	1	576.807
0.153627	0.00211506	1	576.877
0.163627	0.00215212	1	576.917
0.173627	0.00217546	1	576.957
0.183631	0.00219239	1	576.997
0.193622	0.00220791	1	577.037
0.20016	0.00222584	1	577.063
0.196412	-0.00198124	1	577.078
0.186423	-0.00207388	1	577.118
0.176422	-0.00213196	1	577.158
0.16642	-0.00216105	1	577.198
0.156425	-0.00218689	1	577.238
0.146432	-0.00220599	1	577.278
0.136436	-0.00223258	1	577.318
0.126425	-0.00225515	1	577.358
0.116424	-0.00227601	1	577.398
0.106424	-0.00228904	1	577.438
0.0964324	-0.00230865	1	577.478
0.0864281	-0.00232594	1	577.518
0.0764288	-0.00235151	1	577.558
0.0664202	-0.00236673	1	577.598
0.0564148	-0.00238504	1	577.638
0.0464222	-0.00239369	1	577.678
0.0364202	-0.00240986	1	577.718
0.0264226	-0.00243374	1	577.758
0.0164329	-0.00243627	1	577.798
0.00641455	-0.00245662	1	577.838
-0.00359815	-0.00246524	1	577.878
-0.0135905	-0.00247601	1	577.918
-0.0235951	-0.00249	1	577.958
-0.0335995	-0.00249793	1	577.998
-0.0435987	-0.00250974	1	578.038
-0.05359	-0.00252523	1	578.078
-0.0635876	-0.00253066	1	578.118
-0.0735867	-0.00253478	1	578.158
-0.0836006	-0.00254769	1	578.198
-0.0935849	-0.00255186	1	578.238
-0.1036	-0.00256093	1	578.278
-0.113593	-0.00256393	1	578.318
-0.123593	-0.00257317	1	578.358
-0.133589	-0.00257572	1	578.398
-0.143591	-0.00258583	1	578.438
-0.153591	-0.00259943	1	578.478
-0.163587	-0.00260608	1	578.518
-0.173569	-0.0026177	1	578.558
-0.183579	-0.00262861	1	578.598
-0.193585	-0.00264463	1	578.638
-0.199848	-0.00264737	1	578.663
-0.193478	0.00204237	1	578.689
-0.183475	0.00217664	1	578.729
-0.173458	0.00223768	1	578.769
-0.163482	0.00226735	1	578.809
-0.153478	0.00230087	1	578.849
-0.143475	0.00231521	1	578.889
-0.133495	0.00233	1	578.929
-0.123481	0.00233482	1	578.969
-0.113496	0.00234849	1	579.009
-0.103481	0.00235264	1	579.049
-0.0934841	0.00235238	1	579.089
-0.0834845	0.00235655	1	579.129
-0.0734822	0.00236339	1	579.169
-0.0634818	0.00236518	1	579.209
-0.0534812	0.00236633	1	579.249
-0.0434811	0.00236171	1	579.289
-0.033483	0.00236315	1	579.329
-0.0234731	0.0023685	1	579.369
-0.0175717	0.00236705	2	579.392
-0.00757283	0.0023621	2	579.432
0.00242709	0.00236997	2	579.472
0.012428	0.00236673	2	579.512
0.0224353	0.00235943	2	579.552
0.0324302	0.00237301	2	579.592
0.0424254	0.00237181	2	579.632
0.0524245	0.00237164	2	579.672
0.0624288	0.00237112	2	579.712
0.0724259	0.00236785	2	579.752
0.0824284	0.00237559	2	579.792
0.092424	0.00236779	2	579.832
0.102427	0.00237522	2	579.872
0.112423	0.00237469	2	579.912
0.122419	0.00237578	2	579.952
0.132428	0.0023795	2	579.992
0.142417	0.00238102	2	580.032
0.152412	0.00238641	2	580.072
0.162424	0.00238887	2	580.112
0.17241	0.0023894	2	580.152
0.182428	0.00238917	2	580.192
0.192423	0.00239103	2	580.232
0.200134	0.0023808	2	580.263
0.196397	-0.00181292	2	580.279
0.186413	-0.00194837	2	580.319
0.176413	-0.00203226	2	580.359
0.166413	-0.00207028	2	580.399
0.156409	-0.00211172	2	580.439
0.146409	-0.00214385	2	580.479
0.136414	-0.00216812	2	580.519
0.126406	-0.00219256	2	580.559
0.116415	-0.00221446	2	580.599
0.106405	-0.00223232	2	580.639
0.0964119	-0.00224686	2	580.679
0.0864177	-0.00226278	2	580.719
0.0764112	-0.00228541	2	580.759
0.0664147	-0.0023007	2	580.799
0.0564095	-0.00232024	2	580.839
0.0464045	-0.00233062	2	580.879
0.0364019	-0.00234298	2	580.919
0.0264083	-0.00236094	2	580.959
0.0164092	-0.0023685	2	580.999
0.00640172	-0.00238724	2	581.039
-0.00360381	-0.00239883	2	581.079
-0.0136037	-0.00241042	2	581.119
-0.0236053	-0.00241876	2	581.159
-0.0336037	-0.0024357	2	581.199
-0.0436046	-0.00245087	2	581.239
-0.0536115	-0.00246046	2	581.279
-0.0636011	-0.00246107	2	581.319
-0.0735957	-0.00247009	2	581.359
-0.0836002	-0.00247942	2	581.399
-0.0936065	-0.00248603	2	581.439
-0.103608	-0.00249675	2	581.479
-0.113609	-0.00250297	2	581.519
-0.123594	-0.00251118	2	581.559
-0.133596	-0.00252113	2	581.599
-0.143598	-0.00252184	2	581.639
-0.153606	-0.00254645	2	581.679
-0.163607	-0.0025536	2	581.719
-0.173589	-0.00257207	2	581.759
-0.183593	-0.00258786	2	581.799
-0.193594	-0.00260411	2	581.839
-0.199864	-0.0026044	2	581.864
-0.193498	0.00207043	2	581.889
-0.183487	0.00219311	2	581.929
-0.173476	0.00224955	2	581.969
-0.163484	0.00228098	2	582.009
-0.153494	0.00230298	2	582.049
-0.143492	0.00231603	2	582.089
-0.13349	0.00233234	2	582.129
-0.123499	0.0023363	2	582.169
-0.113506	0.00234195	2	582.209
-0.103504	0.00235088	2	582.249
-0.0934947	0.00235519	2	582.289
-0.0834946	0.0023521	2	582.329
-0.0735076	0.00236178	2	582.369
-0.0634866	0.00236314	2	582.409
-0.0534979	0.00236098	2	582.449
-0.0435009	0.00236143	2	582.489
-0.0335072	0.00236098	2	582.529
-0.0235001	0.00236466	2	582.569
-0.0175918	0.00235856	3	582.593
-0.00759627	0.00235917	3	582.633
0.00241169	0.00236401	3	582.673
0.0124039	0.00236359	3	582.713
0.0224171	0.00236036	3	582.753
0.0324084	0.00236219	3	582.793
0.0424093	0.00236336	3	582.833
0.0524083	0.0023682	3	582.873
0.062409	0.00236312	3	582.913
0.0724075	0.00236553	3	582.953
0.0824091	0.0023667	3	582.993
0.0924101	0.00236799	3	583.033
0.102433	0.00237749	3	583.073
0.112422	0.00237241	3	583.113
0.12242	0.00237555	3	583.153
0.132423	0.00237542	3	583.193
0.142422	0.00237614	3	583.233
0.15241	0.00238338	3	583.273
0.162418	0.00238304	3	583.313
0.172412	0.00238275	3	583.353
0.182418	0.00238641	3	583.393
0.192416	0.0023865	3	583.433
0.20013	0.00238394	3	583.464
0.196401	-0.00180993	3	583.479
0.186412	-0.00194454	3	583.519
0.176414	-0.00202753	3	583.559
0.166406	-0.00207224	3	583.599
0.156406	-0.0021074	3	583.639
0.146407	-0.00213222	3	583.679
0.136414	-0.00216075	3	583.719
0.126411	-0.00219154	3	583.759
0.116411	-0.00220207	3	583.799
0.106409	-0.002226	3	583.839
0.0964113	-0.00224174	3	583.879
0.0864061	-0.00225701	3	583.919
0.0764157	-0.00227918	3	583.959
0.0664183	-0.00229365	3	583.999
0.0564119	-0.00231059	3	584.039
0.0464111	-0.00232066	3	584.079
0.036408	-0.00234139	3	584.119
0.0264055	-0.00235706	3	584.159
0.016409	-0.00236648	3	584.199
0.00642266	-0.00238221	3	584.239
-0.00360049	-0.00239598	3	584.279
-0.0136108	-0.00240945	3	584.319
-0.0235941	-0.00241515	3	584.359
-0.0336016	-0.00242727	3	584.399
-0.043611	-0.00243895	3	584.439
-0.0536023	-0.00244802	3	584.479