File: test_trajectories/cyclic_voltammetry/biologic4.txt
Ewe/V	<I>/mA	time/s	cycle number
-0.109561	0.00033312	0.000000000000000E+000	1
-0.085826	0.00372396	4.7492	1
-0.0618516	0.00362434	9.5482	1
-0.0378235	0.00321585	14.3474	1
-0.0139045	0.00287513	19.1464	1
0.0100842	0.00265387	23.9455	1
0.0341564	0.00253176	28.7446	1
0.0581138	0.00248887	33.5436	1
0.0821131	0.00248158	38.3428	1
0.106104	0.00251263	43.1418	1
0.13014	0.00256525	47.9409	1
0.154138	0.00264565	52.74	1
0.178089	0.00274764	57.539	1
0.202109	0.00286927	62.3382	1
0.226134	0.00303252	67.1372	1
0.250096	0.00323175	71.9362	1
0.274096	0.00350596	76.7354	1
0.298067	0.00384343	81.5344	1
0.322049	0.00429731	86.3336	1
0.335617	0.00403002	90.8732	1
0.311645	0.00272208	95.6722	1
0.287679	0.00191658	100.471	1
0.263691	0.00131307	105.27	1
0.239689	0.000836244	110.069	1
0.215738	0.000462018	114.869	1
0.191746	0.000167348	119.668	1
0.167759	-7.60581e-05	124.467	1
0.143718	-0.000278635	129.266	1
0.119743	-0.000445134	134.065	1
0.0957318	-0.000574661	138.864	1
0.0717551	-0.000679449	143.663	1
0.0477584	-0.000767791	148.462	1
0.0237687	-0.000885003	153.261	1
-0.000220173	-0.00103703	158.06	1
-0.0242329	-0.00128509	162.859	1
-0.0482294	-0.00171336	167.658	1
-0.0722253	-0.00252009	172.458	1
-0.096215	-0.00395694	177.257	1
-0.120163	-0.00611909	182.056	1
-0.144143	-0.00862568	186.855	1
-0.16812	-0.010093	191.654	1
-0.192301	-0.0104392	196.473	1
-0.216308	-0.0108939	201.272	1
-0.240271	-0.0113758	206.071	1
-0.26428	-0.0121447	210.87	1
-0.288286	-0.012972	215.669	1
-0.312271	-0.0139187	220.468	1
-0.336254	-0.0151777	225.267	1
-0.360274	-0.0165589	230.066	1
-0.384264	-0.0181141	234.866	1
-0.408253	-0.0197073	239.665	1
-0.432268	-0.0218679	244.464	1
-0.456267	-0.0238299	249.263	1
-0.480259	-0.0262455	254.062	1
-0.504293	-0.0281281	258.861	1
-0.528264	-0.0293494	263.66	1
-0.552246	-0.0301853	268.459	1
-0.576217	-0.0300873	273.258	1
-0.600219	-0.0300045	278.057	1
-0.624246	-0.0298196	282.856	1
-0.648197	-0.0296365	287.655	1
-0.672223	-0.0295928	292.455	1
-0.696196	-0.0292593	297.254	1
-0.720181	-0.0291595	302.053	1
-0.744189	-0.0288	306.852	1
-0.768199	-0.028903	311.651	1
-0.792192	-0.0296338	316.45	1
-0.816177	-0.030922	321.249	1
-0.840165	-0.0328432	326.048	1
-0.864191	-0.0349969	330.847	1
-0.888205	-0.0369158	335.646	1
-0.912179	-0.0397996	340.445	1
-0.936153	-0.0441953	345.244	1
-0.960125	-0.0500546	350.043	1
-0.9841	-0.0584339	354.843	1
-1.00806	-0.067315	359.642	1
-1.03209	-0.0731282	364.441	1
-1.05606	-0.0704081	369.24	1
-1.08005	-0.0606489	374.039	1
-1.10401	-0.0498917	378.838	1
-1.12806	-0.0412153	383.637	1
-1.15206	-0.0351865	388.436	1
-1.17606	-0.031062	393.235	1
-1.20004	-0.0278367	398.034	1
-1.22407	-0.0253597	402.833	1
-1.24809	-0.0238192	407.632	1
-1.27206	-0.0229129	412.432	1
-1.29608	-0.0223318	417.231	1
-1.32006	-0.0219679	422.03	1
-1.33714	-0.0208682	426.469	1
-1.31319	-0.0180541	431.268	1
-1.28913	-0.0165309	436.068	1
-1.26514	-0.015385	440.867	1
-1.24116	-0.0143863	445.666	1
-1.21718	-0.0134395	450.465	1
-1.19319	-0.0124358	455.264	1
-1.16923	-0.011176	460.063	1
-1.14518	-0.00930488	464.862	1
-1.12123	-0.00618904	469.661	1
-1.0971	-0.000528938	474.48	1
-1.07309	0.0104429	479.289	1
-1.04908	0.0303726	484.098	1
-1.02507	0.0593114	488.897	1
-1.00109	0.0594303	493.696	1
-0.977028	0.0361143	498.496	1
-0.953018	0.0272586	503.295	1
-0.929051	0.0211925	508.094	1
-0.905053	0.017825	512.893	1
-0.881045	0.0160192	517.692	1
-0.857049	0.0157994	522.491	1
-0.833077	0.0159938	527.29	1
-0.809038	0.0167627	532.089	1
-0.785072	0.0173211	536.888	1
-0.761104	0.0181533	541.687	1
-0.737074	0.0191192	546.486	1
-0.713143	0.0197947	551.285	1
-0.689116	0.0210583	556.084	1
-0.665105	0.0232057	560.884	1
-0.641116	0.0251187	565.683	1
-0.617132	0.0257967	570.482	1
-0.593118	0.025591	575.281	1
-0.569133	0.0258905	580.08	1
-0.545162	0.0264879	584.879	1
-0.521164	0.0271298	589.678	1
-0.497162	0.0271129	594.477	1
-0.473162	0.0262264	599.276	1
-0.449135	0.0249827	604.075	1
-0.425185	0.0238057	608.874	1
-0.401178	0.023314	613.673	1
-0.377142	0.0225603	618.473	1
-0.353193	0.0213793	623.272	1
-0.329164	0.0197887	628.071	1
-0.305209	0.0183653	632.87	1
-0.281163	0.0176081	637.669	1
-0.257202	0.0171201	642.468	1
-0.233208	0.0171156	647.267	1
-0.209234	0.0168198	652.066	1
-0.185228	0.0166147	656.865	1
-0.161184	0.0163378	661.664	1
-0.137204	0.0157283	666.463	1
-0.113209	0.0148502	671.262	1
-0.090919	0.0135892	675.722	2
-0.0669306	0.0119565	680.521	2
-0.0429708	0.0104323	685.32	2
-0.0189296	0.00922501	690.119	2
0.00507446	0.00842089	694.918	2
0.0290299	0.00792615	699.717	2
0.0530603	0.00763268	704.516	2
0.0770846	0.00746186	709.315	2
0.101081	0.00731766	714.114	2
0.125063	0.00718255	718.913	2
0.149054	0.00704722	723.712	2
0.173043	0.00690323	728.511	2
0.196994	0.00679373	733.311	2
0.221038	0.00669754	738.11	2
0.245073	0.00666733	742.909	2
0.269059	0.00664335	747.708	2
0.293012	0.00673092	752.507	2
0.317009	0.00685611	757.306	2
0.340231	0.00699089	761.956	2
0.316762	0.0050771	766.665	2
0.29258	0.0039874	771.484	2
0.2686	0.00315589	776.283	2
0.244603	0.00246554	781.082	2
0.220633	0.00190091	785.881	2
0.196624	0.00143373	790.68	2
0.172646	0.00104046	795.479	2
0.14866	0.000709119	800.278	2
0.12467	0.000424987	805.077	2
0.100676	0.000154357	809.876	2
0.0766993	-6.5519e-05	814.675	2
0.0526858	-0.000281848	819.475	2
0.0286991	-0.000490533	824.274	2
0.00468074	-0.000719962	829.073	2
-0.0193123	-0.00104491	833.872	2
-0.0433003	-0.00156263	838.671	2
-0.0672747	-0.00248954	843.47	2
-0.0912653	-0.00408994	848.269	2
-0.115239	-0.00639614	853.068	2
-0.139175	-0.00891018	857.867	2
-0.163191	-0.0102197	862.666	2
-0.187357	-0.0105057	867.485	2
-0.211393	-0.0110326	872.284	2
-0.235371	-0.0116361	877.083	2
-0.259372	-0.0123886	881.883	2
-0.283423	-0.013169	886.682	2
-0.307373	-0.0139383	891.481	2
-0.331352	-0.0150296	896.28	2
-0.355345	-0.016148	901.079	2
-0.379369	-0.0174511	905.878	2
-0.403357	-0.0188758	910.677	2
-0.427338	-0.0204298	915.476	2
-0.451299	-0.0223552	920.275	2
-0.475344	-0.0243257	925.074	2
-0.499296	-0.0261765	929.873	2
-0.523282	-0.0280916	934.672	2
-0.547269	-0.0286238	939.472	2
-0.571272	-0.0289115	944.271	2
-0.595262	-0.0289953	949.07	2
-0.619321	-0.0286167	953.869	2
-0.643292	-0.0283838	958.668	2
-0.667269	-0.0282577	963.467	2
-0.691268	-0.0277182	968.266	2
-0.71529	-0.0275023	973.065	2
-0.73925	-0.0273145	977.864	2
-0.76326	-0.0272498	982.663	2
-0.787239	-0.0276803	987.462	2
-0.811282	-0.0290295	992.261	2
-0.835286	-0.031166	997.06	2
-0.85928	-0.0331313	1001.86	2
-0.883254	-0.034973	1006.66	2
-0.90726	-0.0375555	1011.46	2
-0.931226	-0.0411132	1016.26	2
-0.955184	-0.046519	1021.06	2
-0.979187	-0.0538107	1025.85	2
-1.00318	-0.0624661	1030.65	2
-1.02719	-0.0692453	1035.45	2
-1.05116	-0.0685972	1040.25	2
-1.07514	-0.0605983	1045.05	2
-1.09915	-0.0498743	1049.85	2
-1.12317	-0.0408051	1054.65	2
-1.14715	-0.0342663	1059.45	2
-1.17116	-0.0298276	1064.25	2
-1.19515	-0.0264656	1069.05	2
-1.21916	-0.0238101	1073.85	2
-1.24312	-0.0219856	1078.64	2
-1.26712	-0.0208404	1083.44	2
-1.29112	-0.0200801	1088.24	2
-1.31513	-0.0195815	1093.04	2
-1.33912	-0.0192341	1097.84	2
-1.31713	-0.0159903	1102.46	2
-1.29307	-0.0144179	1107.26	2
-1.26916	-0.0133187	1112.06	2
-1.24517	-0.0123725	1116.86	2
-1.22119	-0.0115041	1121.66	2
-1.19716	-0.0105305	1126.46	2
-1.17319	-0.00930851	1131.26	2
-1.1492	-0.00745428	1136.05	2
-1.12504	-0.00437629	1140.87	2
-1.10113	0.00127203	1145.67	2
-1.07697	0.0121381	1150.49	2
-1.05303	0.0316617	1155.29	2
-1.02904	0.0588782	1160.09	2
-1.00502	0.0572855	1164.89	2
-0.981043	0.0372869	1169.69	2
-0.957042	0.0285507	1174.49	2
-0.933048	0.022565	1179.29	2
-0.909062	0.0189638	1184.09	2
-0.885073	0.0167359	1188.88	2
-0.861066	0.0160988	1193.68	2
-0.837065	0.0160542	1198.48	2
-0.813035	0.0166551	1203.28	2
-0.789022	0.0175129	1208.08	2
-0.765078	0.0180489	1212.88	2
-0.741034	0.0189547	1217.68	2
-0.717088	0.0197993	1222.48	2
-0.693073	0.0208778	1227.28	2
-0.669079	0.0221857	1232.08	2
-0.645109	0.0238994	1236.87	2
-0.621084	0.0250227	1241.67	2
-0.597084	0.0249112	1246.47	2
-0.573091	0.0251709	1251.27	2
-0.5491	0.0258834	1256.07	2
-0.52512	0.0269092	1260.87	2
-0.501133	0.0266866	1265.67	2
-0.47714	0.0257136	1270.47	2
-0.453111	0.0243654	1275.27	2
-0.429125	0.0230434	1280.07	2
-0.405112	0.0225245	1284.87	2
-0.381143	0.0219019	1289.66	2
-0.357142	0.0213836	1294.46	2
-0.333127	0.0202671	1299.26	2
-0.309159	0.0189304	1304.06	2
-0.285164	0.01792	1308.86	2
-0.261162	0.0171435	1313.66	2
-0.237188	0.0168679	1318.46	2
-0.213215	0.0165246	1323.26	2
-0.189164	0.0163834	1328.06	2
-0.165167	0.0160965	1332.86	2
-0.141188	0.0154876	1337.66	2
-0.117177	0.0143965	1342.45	2
-0.0948543	0.0130782	1346.91	3
-0.0708884	0.011449	1351.71	3
-0.0469055	0.00989602	1356.51	3
-0.0229272	0.00864698	1361.31	3
0.00104635	0.00777939	1366.11	3
0.0250029	0.00721614	1370.91	3
0.0490518	0.00689065	1375.71	3
0.0730993	0.00670671	1380.51	3
0.0971036	0.00660393	1385.31	3
0.121065	0.00652448	1390.11	3
0.145017	0.00644577	1394.9	3
0.157994	0.00640649	1397.5	3