File: test_trajectories/cyclic_voltammetry/biologic1.txt
Ewe/V	<I>/mA	cycle number	time/s
0.201241	8.88687e-05	1	0.281
0.221243	0.000109618	1	0.681
0.241243	0.000114597	1	1.081
0.261257	0.000117254	1	1.481
0.281243	0.000119418	1	1.881
0.301252	0.000121448	1	2.281
0.32126	0.000123832	1	2.681
0.34125	0.000126206	1	3.081
0.361264	0.00012911	1	3.481
0.381254	0.000132251	1	3.881
0.40126	0.00013615	1	4.281
0.421261	0.000140464	1	4.681
0.441262	0.000145978	1	5.081
0.461253	0.000153457	1	5.481
0.481266	0.000162856	1	5.881
0.499461	0.000175277	1	6.245
0.492712	-6.29619e-05	1	6.4116
0.472713	-9.34782e-05	1	6.8116
0.452704	-0.000104247	1	7.2116
0.432703	-0.000109463	1	7.6116
0.412706	-0.000112847	1	8.0116
0.392706	-0.000115254	1	8.4116
0.372712	-0.000117966	1	8.8116
0.352697	-0.000120527	1	9.2116
0.332708	-0.000122927	1	9.6116
0.312693	-0.000124872	1	10.0116
0.292684	-0.000126445	1	10.4116
0.272683	-0.00012757	1	10.8116
0.252692	-0.000128383	1	11.2116
0.23269	-0.00012863	1	11.6116
0.212698	-0.000128644	1	12.0116
0.192685	-0.000128409	1	12.4116
0.172686	-0.000128136	1	12.8116
0.152687	-0.000128477	1	13.2118
0.132704	-0.000128831	1	13.6118
0.112708	-0.000129586	1	14.0118
0.0927098	-0.000131032	1	14.4118
0.0727035	-0.000132744	1	14.8118
0.0526979	-0.000135341	1	15.2118
0.0326912	-0.000137366	1	15.6118
0.0127091	-0.000139717	1	16.0118
-0.00730667	-0.000141963	1	16.4118
-0.0273195	-0.000144396	1	16.8118
-0.047313	-0.000146504	1	17.2118
-0.0673229	-0.00014781	1	17.6118
-0.0873214	-0.000149025	1	18.0118
-0.107335	-0.000150093	1	18.4118
-0.127329	-0.000151714	1	18.8118
-0.147328	-0.000153392	1	19.2118
-0.167331	-0.000155529	1	19.6118
-0.187336	-0.000158165	1	20.0118
-0.207345	-0.000161311	1	20.4118
-0.227332	-0.00016461	1	20.8118
-0.24733	-0.000168852	1	21.2118
-0.26733	-0.000174059	1	21.6118
-0.287317	-0.000180877	1	22.0118
-0.30733	-0.000190364	1	22.4118
-0.32733	-0.000202135	1	22.812
-0.347339	-0.000217891	1	23.212
-0.367338	-0.000236995	1	23.612
-0.387339	-0.000259666	1	24.012
-0.407334	-0.000286198	1	24.412
-0.427343	-0.000314105	1	24.812
-0.447329	-0.000342279	1	25.212
-0.467341	-0.0003675	1	25.612
-0.487318	-0.000387686	1	26.012
-0.497186	-0.000153551	1	26.3124
-0.477194	-5.46577e-05	1	26.7124
-0.455663	-1.19473e-05	1	27.1424
-0.435706	1.70504e-05	1	27.5424
-0.415734	4.12794e-05	1	27.9424
-0.395726	6.1978e-05	1	28.3424
-0.375733	7.97877e-05	1	28.7424
-0.355728	9.51043e-05	1	29.1424
-0.335748	0.000107351	1	29.5424
-0.314188	0.000118032	1	29.9724
-0.29418	0.000126499	1	30.3726
-0.274185	0.000132966	1	30.7726
-0.254185	0.000137904	1	31.1726
-0.234185	0.000140982	1	31.5726
-0.21419	0.000143405	1	31.9726
-0.194189	0.000144937	1	32.3726
-0.17418	0.000146271	1	32.7726
-0.154194	0.000146913	1	33.1726
-0.134175	0.000147123	1	33.5726
-0.114189	0.000147416	1	33.9726
-0.0941724	0.000147656	1	34.3726
-0.0741857	0.000147714	1	34.7726
-0.0541792	0.000147629	1	35.1726
-0.0341754	0.000147503	1	35.5726
-0.0141884	0.000147204	1	35.9726
0.0058274	0.000147261	1	36.3726
0.0258203	0.00014706	1	36.7726
0.0458365	0.000146062	1	37.1726
0.0658485	0.00014378	1	37.5726
0.0858381	0.000140898	1	37.9726
0.105831	0.000138383	1	38.3726
0.125834	0.000135105	1	38.7726
0.145827	0.000133038	1	39.1726
0.161087	0.000131449	2	39.4776
0.178629	0.00013139	2	39.8288
0.19863	0.000130804	2	40.2288
0.218643	0.00013055	2	40.6288
0.238629	0.000130606	2	41.0288
0.258636	0.000131364	2	41.4288
0.278634	0.000132067	2	41.8288
0.298632	0.000133596	2	42.2288
0.318646	0.000135157	2	42.6288
0.338645	0.000136755	2	43.0288
0.358647	0.000138738	2	43.4288
0.378651	0.000140336	2	43.8288
0.39865	0.000142596	2	44.2288
0.418664	0.00014509	2	44.6288
0.438649	0.00014914	2	45.0288
0.458649	0.000154904	2	45.4288
0.478647	0.000163344	2	45.8288
0.498141	0.000175467	2	46.2188
0.492692	-6.19432e-05	2	46.4114
0.472691	-9.27383e-05	2	46.8114
0.4527	-0.000103665	2	47.2114
0.432686	-0.000109118	2	47.6114
0.41269	-0.000112938	2	48.0114
0.392687	-0.000115428	2	48.4114
0.372683	-0.000118169	2	48.8114
0.352681	-0.000120514	2	49.2114
0.332689	-0.000122949	2	49.6114
0.312696	-0.000125023	2	50.0114
0.292684	-0.000126815	2	50.4114
0.272688	-0.000128246	2	50.8114
0.252671	-0.000129143	2	51.2114
0.232676	-0.000129377	2	51.6114
0.212693	-0.000129332	2	52.0114
0.192678	-0.000129306	2	52.4114
0.172677	-0.000129002	2	52.8114
0.152684	-0.000129529	2	53.2116
0.132676	-0.000129736	2	53.6116
0.11268	-0.000130449	2	54.0116
0.0926779	-0.000131848	2	54.4116
0.0726818	-0.00013341	2	54.8116
0.0526796	-0.000136317	2	55.2116
0.0326777	-0.00013848	2	55.6116
0.0126843	-0.000140708	2	56.0116
-0.00733214	-0.000142984	2	56.4116
-0.0273359	-0.000145326	2	56.8116
-0.047322	-0.000147589	2	57.2116
-0.0673433	-0.00014866	2	57.6116
-0.0873405	-0.000149784	2	58.0116
-0.107351	-0.00015097	2	58.4116
-0.127342	-0.000152423	2	58.8116
-0.147326	-0.000153886	2	59.2116
-0.167336	-0.000156032	2	59.6116
-0.187333	-0.000158487	2	60.0116
-0.207334	-0.000161669	2	60.4116
-0.22734	-0.000165229	2	60.8116
-0.247328	-0.000169117	2	61.2116
-0.267328	-0.000174525	2	61.6116
-0.287329	-0.000181094	2	62.0116
-0.307336	-0.00019006	2	62.4116
-0.327337	-0.000201354	2	62.8118
-0.347335	-0.000216395	2	63.2118
-0.367328	-0.000234488	2	63.6118
-0.387335	-0.000255694	2	64.0118
-0.407338	-0.000280259	2	64.4118
-0.427345	-0.000306298	2	64.8118
-0.447333	-0.000332694	2	65.2118
-0.467334	-0.000356807	2	65.6118
-0.48732	-0.000376932	2	66.0118
-0.497189	-0.000144203	2	66.3122
-0.477195	-4.89979e-05	2	66.7122
-0.455671	-7.89001e-06	2	67.1422
-0.435697	2.01364e-05	2	67.5422
-0.415704	4.37705e-05	2	67.9422
-0.395723	6.36671e-05	2	68.3422
-0.375726	8.10288e-05	2	68.7422
-0.355737	9.60644e-05	2	69.1422
-0.335734	0.000107876	2	69.5422
-0.314175	0.000118668	2	69.9722
-0.294166	0.000126805	2	70.3724
-0.274171	0.000133129	2	70.7724
-0.254183	0.000138332	2	71.1724
-0.23417	0.000141158	2	71.5724
-0.21417	0.00014362	2	71.9724
-0.194169	0.000145055	2	72.3724
-0.174173	0.000146238	2	72.7724
-0.154179	0.000147184	2	73.1724
-0.134169	0.000147407	2	73.5724
-0.114182	0.000147526	2	73.9724
-0.0941823	0.00014791	2	74.3724
-0.0741897	0.000148117	2	74.7724
-0.0541919	0.000148068	2	75.1724
-0.0341857	0.00014797	2	75.5724
-0.0141938	0.000147741	2	75.9724
0.00583879	0.000147737	2	76.3724
0.0258316	0.000147667	2	76.7724
0.0458348	0.000146726	2	77.1724
0.0658314	0.000144447	2	77.5724
0.0858351	0.000141588	2	77.9724
0.105841	0.000138847	2	78.3724
0.125835	0.000135675	2	78.7724
0.145843	0.000133457	2	79.1724
0.161159	0.000132547	3	79.4774
0.178642	0.000131611	3	79.8286
0.198629	0.000131499	3	80.2286
0.218646	0.000130944	3	80.6286
0.238651	0.000131028	3	81.0286
0.258656	0.000131698	3	81.4286
0.27865	0.000132465	3	81.8286
0.298653	0.000133832	3	82.2286
0.318666	0.000135321	3	82.6286
0.338668	0.000136923	3	83.0286
0.358656	0.000138692	3	83.4286
0.378666	0.000140379	3	83.8286
0.398666	0.000142554	3	84.2286
0.418681	0.000145152	3	84.6286
0.438671	0.000148859	3	85.0286
0.458664	0.000154684	3	85.4286
0.478671	0.000163011	3	85.8286
0.498147	0.000174605	3	86.2186
0.492707	-6.25873e-05	3	86.4112
0.4727	-9.29878e-05	3	86.8112
0.452697	-0.000103751	3	87.2112
0.432696	-0.000109174	3	87.6112
0.412705	-0.000112768	3	88.0112
0.3927	-0.000115336	3	88.4112
0.372706	-0.000117954	3	88.8112
0.352695	-0.000120499	3	89.2112
0.332702	-0.000122968	3	89.6112
0.312703	-0.000125157	3	90.0112
0.292709	-0.000126887	3	90.4112
0.272696	-0.000128171	3	90.8112
0.252689	-0.000129216	3	91.2112
0.232697	-0.000129575	3	91.6112
0.212702	-0.000129525	3	92.0112
0.192687	-0.000129386	3	92.4112
0.172706	-0.000129066	3	92.8112
0.152696	-0.000129464	3	93.2114
0.13269	-0.000129846	3	93.6114
0.112691	-0.000130776	3	94.0114
0.0926866	-0.000132176	3	94.4114
0.0726885	-0.000134093	3	94.8114
0.0526842	-0.00013646	3	95.2114
0.0326922	-0.000138789	3	95.6114
0.0126833	-0.000141127	3	96.0114
-0.00732325	-0.000143276	3	96.4114
-0.0273206	-0.00014572	3	96.8114
-0.0473216	-0.000147754	3	97.2114
-0.0673167	-0.00014906	3	97.6114
-0.0873117	-0.000150179	3	98.0114
-0.107333	-0.000151206	3	98.4114
-0.12733	-0.000152683	3	98.8114
-0.147323	-0.000154282	3	99.2114
-0.167314	-0.000156357	3	99.6114
-0.187298	-0.000158835	3	100.011
-0.207327	-0.000161883	3	100.411
-0.227321	-0.000165313	3	100.811
-0.247322	-0.000169459	3	101.211
-0.267335	-0.000174645	3	101.611
-0.28733	-0.000180989	3	102.011
-0.307328	-0.000189867	3	102.411
-0.327331	-0.000201227	3	102.812
-0.34734	-0.000215875	3	103.212
-0.367337	-0.000233509	3	103.612
-0.387347	-0.000254421	3	104.012
-0.407348	-0.000277966	3	104.412
-0.427346	-0.00030326	3	104.812
-0.447324	-0.000329005	3	105.212
-0.467324	-0.000352647	3	105.612
-0.487322	-0.000372588	3	106.012
-0.497185	-0.00014054	3	106.312
-0.477182	-4.65317e-05	3	106.712
-0.455658	-6.21626e-06	3	107.142
-0.435695	2.158e-05	3	107.542
-0.415709	4.46251e-05	3	107.942
-0.395713	6.4424e-05	3	108.342
-0.375711	8.16423e-05	3	108.742
-0.355727	9.63702e-05	3	109.142
-0.335729	0.000108481	3	109.542
-0.314175	0.000118817	3	109.972
-0.29416	0.000127091	3	110.372
-0.274165	0.000133381	3	110.772
-0.254173	0.000138298	3	111.172
-0.234177	0.000141154	3	111.572
-0.214179	0.000143721	3	111.972
-0.194175	0.00014522	3	112.372
-0.17418	0.000146395	3	112.772
-0.154191	0.000147164	3	113.172
-0.134172	0.000147455	3	113.572
-0.11419	0.000147661	3	113.972
-0.0941844	0.000148081	3	114.372
-0.0741951	0.000148161	3	114.772
-0.054196	0.000148175	3	115.172
-0.0341864	0.000148172	3	115.572
-0.0141927	0.000147954	3	115.972
0.00583372	0.000148231	3	116.372
0.0258389	0.000148034	3	116.772
0.0458265	0.000146996	3	117.172
0.065846	0.000144787	3	117.572
0.0858472	0.000141732	3	117.972