File: test_trajectories/cyclic_voltammetry/biologic6.txt
mode	ox/red	error	control changes	counter inc.	time/s	control/V	Ewe/V	<I>/mA	cycle number	(Q-Qo)/C	I Range	step time/s	P/W
2	0	0	0	0	0.000000000000000E+000	-0.143047	-0.142154	-3.17827e-07	1	0.0000000E+000	59	0.000000000000000E+000	4.51804e-11
2	1	0	1	0	1.0203	-0.0410201	-0.0394335	0.000251715	1	1.4618e-07	54	1.0176	-9.92603e-09
2	1	0	1	0	1.4903	0.00598074	0.006166	0.000367325	1	2.90502e-07	54	1.4876	2.26492e-09
2	1	0	1	0	1.9603	0.0529816	0.0528355	0.000655005	1	5.16671e-07	54	1.9576	3.46075e-08
2	1	0	1	0	2.4603	0.102983	0.104067	0.0018619	1	1.0072e-06	53	2.4576	1.93762e-07
2	1	0	1	0	2.9303	0.149983	0.150139	0.00463363	1	3.03809e-06	53	2.9276	6.95689e-07
2	1	0	1	0	3.4003	0.196984	0.197554	0.00302116	1	5.10358e-06	53	3.3976	5.96842e-07
2	1	0	1	0	3.8703	0.243985	0.244359	0.000481856	1	5.63437e-06	53	3.8676	1.17746e-07
2	1	0	1	0	4.3703	0.293986	0.294192	0.000379383	1	5.84617e-06	54	4.3676	1.11612e-07
2	1	0	1	0	4.8403	0.340987	0.341239	0.000343958	1	6.01609e-06	54	4.8376	1.17372e-07
2	1	0	1	0	5.3103	0.387988	0.388209	0.000334642	1	6.17503e-06	54	5.3076	1.29911e-07
2	0	0	1	0	5.7685	0.366237	0.366781	-0.00011396	1	6.19337e-06	54	0.2951	-4.17983e-08
2	0	0	1	0	6.2385	0.319237	0.319602	-0.00015058	1	6.13106e-06	54	0.7651	-4.81257e-08
2	0	0	1	0	6.7085	0.272236	0.272593	-0.000170365	1	6.05611e-06	54	1.2351	-4.64403e-08
2	0	0	1	0	7.1785	0.225235	0.225571	-0.000183707	1	5.97236e-06	54	1.7051	-4.14388e-08
2	0	0	1	0	7.6485	0.178234	0.178573	-0.000201757	1	5.88057e-06	54	2.1751	-3.60285e-08
2	0	0	1	0	8.1185	0.131233	0.131603	-0.000229713	1	5.77906e-06	54	2.6451	-3.02308e-08
2	0	0	1	0	8.5885	0.0842322	0.0846005	-0.00025629	1	5.66583e-06	54	3.1151	-2.16823e-08
2	0	0	1	0	9.0585	0.0372313	0.0376137	-0.000284263	1	5.54013e-06	54	3.5851	-1.06922e-08
2	0	0	1	0	9.5285	-0.00976955	-0.00937304	-0.000337438	1	5.39668e-06	54	4.0551	3.16282e-09
2	0	0	1	0	10.0285	-0.0597705	-0.0606929	-0.00142117	1	5.09456e-06	53	4.5551	8.62549e-08
2	0	0	1	0	10.4985	-0.106771	-0.106457	-0.00202115	1	4.21005e-06	53	5.0251	2.15165e-07
2	0	0	1	0	10.9686	-0.153772	-0.153497	-0.00162237	1	3.32782e-06	53	5.4952	2.49028e-07
2	0	0	1	0	11.4386	-0.200773	-0.200488	-0.0011339	1	2.70179e-06	53	5.9652	2.27333e-07
2	0	0	1	0	11.9086	-0.247774	-0.247442	-0.000964862	1	2.21356e-06	53	6.4352	2.38747e-07
2	0	0	1	0	12.3786	-0.294775	-0.29444	-0.000847939	1	1.78943e-06	53	6.9052	2.49667e-07
2	0	0	1	0	12.8486	-0.341776	-0.341446	-0.000733658	1	1.41772e-06	53	7.3752	2.50504e-07
2	0	0	1	0	13.3186	-0.388777	-0.388481	-0.000628488	1	1.0968e-06	53	7.8452	2.44155e-07
2	0	0	1	0	13.7886	-0.435778	-0.435474	-0.000528569	1	8.25072e-07	53	8.3152	2.30178e-07
2	0	0	1	0	14.2886	-0.485779	-0.484595	-0.000431919	1	5.8527e-07	54	8.8152	2.09306e-07
2	0	0	1	0	14.7586	-0.532779	-0.532458	-0.000356496	1	4.01322e-07	54	9.2852	1.89819e-07
2	0	0	1	0	15.2286	-0.57978	-0.579506	-0.000292617	1	2.50689e-07	54	9.7552	1.69573e-07
2	0	0	1	1	15.6891	-0.57418	-0.573972	-0.000228848	1	1.31569e-07	54	10.2157	1.31352e-07
2	0	0	1	1	16.1591	-0.527179	-0.526967	-0.00017862	1	3.75434e-08	54	10.6857	9.41267e-08
2	0	0	1	1	16.6291	-0.480178	-0.479983	-0.00012836	1	-3.32529e-08	54	11.1557	6.16107e-08
2	0	0	1	1	17.0991	-0.433178	-0.433018	-6.64782e-05	1	-7.92856e-08	54	11.6257	2.87863e-08
2	1	0	1	1	17.5991	-0.383177	-0.383365	7.41939e-06	1	-9.484e-08	55	0.03	-2.84434e-09
2	1	0	1	1	18.0691	-0.336176	-0.336976	9.97886e-05	1	-7.03651e-08	55	0.5	-3.36263e-08
2	1	0	1	1	18.5691	-0.286175	-0.285949	0.000197428	1	4.31654e-09	54	1	-5.64541e-08
2	1	0	1	1	19.0391	-0.239174	-0.238989	0.000239247	1	1.07432e-07	54	1.47	-5.71774e-08
2	1	0	1	1	19.5091	-0.192173	-0.191946	0.000235601	1	2.19797e-07	54	1.94	-4.52227e-08
2	1	0	1	1	19.9791	-0.145172	-0.144969	0.000237793	1	3.31751e-07	54	2.41	-3.44726e-08
2	1	0	1	1	20.4417	-0.0989212	-0.0987217	0.000254167	2	4.45752e-07	54	2.8726	-2.50918e-08
2	1	0	1	1	20.9117	-0.0519203	-0.0517303	0.000276792	2	5.70348e-07	54	3.3426	-1.43186e-08
2	1	0	1	1	21.3817	-0.00491946	-0.00479332	0.000338119	2	7.13485e-07	54	3.8126	-1.62071e-09
2	1	0	1	1	21.8517	0.0420814	0.0419665	0.000572643	2	9.15802e-07	54	4.2826	2.40318e-08
2	1	0	1	1	22.3517	0.0920823	0.0923119	0.00402998	2	1.59105e-06	53	4.7826	3.72015e-07
2	1	0	1	1	22.8217	0.139083	0.13929	0.00418596	2	3.64319e-06	53	5.2526	5.8306e-07
2	1	0	1	1	23.2917	0.186084	0.186814	0.000870429	2	5.15949e-06	53	5.7226	1.62609e-07
2	1	0	1	1	23.7917	0.236085	0.236236	0.000372123	2	5.39543e-06	54	6.2226	8.79089e-08
2	1	0	1	1	24.2617	0.283086	0.283343	0.000321969	2	5.5561e-06	54	6.6926	9.12277e-08
2	1	0	1	1	24.7317	0.330087	0.330333	0.000305298	2	5.70368e-06	54	7.1626	1.0085e-07
2	1	0	1	1	25.2017	0.377088	0.377319	0.000298334	2	5.84613e-06	54	7.6326	1.12567e-07
2	0	0	1	1	25.6589	0.377238	0.37787	-0.000109985	2	5.90033e-06	54	0.1951	-4.15601e-08
2	0	0	1	1	26.1289	0.330237	0.330609	-0.000152094	2	5.83653e-06	54	0.6651	-5.02836e-08
2	0	0	1	1	26.5989	0.283236	0.283577	-0.000173319	2	5.76063e-06	54	1.1351	-4.91494e-08
2	0	0	1	1	27.0689	0.236235	0.236571	-0.000187103	2	5.67703e-06	54	1.6051	-4.4263e-08
2	0	0	1	1	27.5389	0.189234	0.189527	-0.000200394	2	5.58651e-06	54	2.0751	-3.798e-08
2	0	0	1	1	28.0089	0.142233	0.142553	-0.000216622	2	5.4878e-06	54	2.5451	-3.088e-08
2	0	0	1	1	28.4789	0.0952324	0.0955891	-0.000243664	2	5.37845e-06	54	3.0151	-2.32916e-08
2	0	0	1	1	28.9489	0.0482315	0.0485912	-0.00027478	2	5.25697e-06	54	3.4851	-1.33519e-08
2	0	0	1	1	29.4189	0.00123065	0.00161378	-0.000316254	2	5.12012e-06	54	3.9551	-5.10364e-10
2	0	0	1	1	29.8889	-0.0457702	-0.044912	-0.00066365	2	4.92779e-06	54	4.4251	2.98059e-08
2	0	0	1	1	30.3889	-0.0957712	-0.0954899	-0.00213188	2	4.08121e-06	53	4.9251	2.03573e-07
2	0	0	1	1	30.859	-0.142772	-0.142534	-0.00155043	2	3.18838e-06	53	5.3952	2.20989e-07
2	0	0	1	1	31.329	-0.189773	-0.189475	-0.000919299	2	2.64769e-06	53	5.8652	1.74185e-07
2	0	0	1	1	31.799	-0.236774	-0.23646	-0.000814462	2	2.24545e-06	53	6.3352	1.92588e-07
2	0	0	1	1	32.269	-0.283775	-0.283465	-0.000732327	2	1.88471e-06	53	6.8052	2.07589e-07
2	0	0	1	1	32.739	-0.330776	-0.330445	-0.00064479	2	1.56255e-06	53	7.2752	2.13068e-07
2	0	0	1	1	33.209	-0.377777	-0.377485	-0.000547489	2	1.28145e-06	53	7.7452	2.06669e-07
2	0	0	1	1	33.679	-0.424777	-0.424481	-0.000458422	2	1.04237e-06	53	8.2152	1.94591e-07
2	0	0	1	1	34.179	-0.474778	-0.474425	-0.000377041	2	8.30851e-07	54	8.7152	1.78878e-07
2	0	0	1	1	34.649	-0.521779	-0.521496	-0.000323114	2	6.65558e-07	54	9.1852	1.68502e-07
2	0	0	1	1	35.119	-0.56878	-0.568512	-0.000271582	2	5.27796e-07	54	9.6552	1.54397e-07
2	0	0	1	0	35.5795	-0.58518	-0.584971	-0.000208516	2	4.1547e-07	54	10.1157	1.21976e-07
2	0	0	1	0	36.0495	-0.53818	-0.537976	-0.00017045	2	3.25402e-07	54	10.5857	9.16979e-08
2	0	0	1	0	36.5195	-0.491179	-0.491	-0.000130099	2	2.55426e-07	54	11.0557	6.38785e-08
2	0	0	1	0	36.9895	-0.444178	-0.443994	-7.87643e-05	2	2.07297e-07	54	11.5257	3.49709e-08
2	0	0	1	0	37.4895	-0.394177	-0.39414	-8.46444e-06	2	1.86063e-07	55	12.0257	3.33618e-09
2	1	0	1	0	37.9595	-0.347176	-0.34778	7.60576e-05	2	2.02215e-07	55	0.43	-2.64513e-08
2	1	0	1	0	38.4595	-0.297175	-0.296845	0.000172062	2	2.66415e-07	54	0.93	-5.10757e-08
2	1	0	1	0	38.9295	-0.250174	-0.250021	0.000232443	2	3.62762e-07	54	1.4	-5.81155e-08
2	1	0	1	0	39.3995	-0.203173	-0.202983	0.000238715	2	4.72864e-07	54	1.87	-4.8455e-08
2	1	0	1	0	39.8695	-0.156172	-0.155952	0.000232646	2	5.83006e-07	54	2.34	-3.62817e-08
2	1	0	1	0	40.3321	-0.109921	-0.109739	0.000250211	3	6.93843e-07	54	2.8026	-2.7458e-08
2	1	0	1	0	40.8021	-0.0629206	-0.0627312	0.000264615	3	8.13255e-07	54	3.2726	-1.65996e-08
2	1	0	1	0	41.2721	-0.0159197	-0.0157691	0.00030605	3	9.46575e-07	54	3.7426	-4.82612e-09
2	1	0	1	0	41.7421	0.0310812	0.0311041	0.000462334	3	1.12012e-06	54	4.2126	1.43805e-08
2	1	0	1	0	42.2421	0.0810821	0.0826272	0.00172237	3	1.49734e-06	53	4.7126	1.42315e-07
2	1	0	1	0	42.7121	0.128083	0.128285	0.00402019	3	3.33546e-06	53	5.1826	5.15729e-07
2	1	0	1	0	43.1821	0.175084	0.175795	0.00116124	3	4.89497e-06	53	5.6526	2.04141e-07
2	1	0	1	0	43.6821	0.225085	0.225163	0.000358153	3	5.13355e-06	54	6.1526	8.06428e-08
2	1	0	1	0	44.1521	0.272086	0.272319	0.00031392	3	5.28815e-06	54	6.6226	8.54865e-08
2	1	0	1	0	44.6221	0.319086	0.31934	0.000293724	3	5.43037e-06	54	7.0926	9.37978e-08
2	1	0	1	0	45.0921	0.366087	0.366299	0.000288359	3	5.56756e-06	54	7.5626	1.05626e-07
2	0	0	1	0	45.5493	0.388238	0.389096	-9.7516e-05	3	5.66191e-06	54	0.0901	-3.79431e-08
2	0	0	1	0	46.0193	0.341237	0.341625	-0.000145939	3	5.60059e-06	54	0.5601	-4.98563e-08
2	0	0	1	0	46.4893	0.294236	0.294587	-0.000169499	3	5.52588e-06	54	1.0301	-4.99323e-08
2	0	0	1	0	46.9593	0.247235	0.247561	-0.000184746	3	5.44356e-06	54	1.5001	-4.5736e-08
2	0	0	1	0	47.4293	0.200234	0.200548	-0.000197974	3	5.35471e-06	54	1.9701	-3.97033e-08
2	0	0	1	0	47.8993	0.153233	0.153554	-0.000210642	3	5.25858e-06	54	2.4401	-3.2345e-08
2	0	0	1	0	48.3693	0.106233	0.106567	-0.000232214	3	5.15318e-06	54	2.9101	-2.47465e-08
2	0	0	1	0	48.8393	0.0592317	0.059601	-0.000262011	3	5.03664e-06	54	3.3801	-1.56161e-08
2	0	0	1	0	49.3093	0.0122309	0.0125881	-0.00029542	3	4.90704e-06	54	3.8501	-3.71879e-09
2	0	0	1	0	49.7793	-0.03477	-0.0341887	-0.000443088	3	4.75138e-06	54	4.3201	1.51486e-08
2	0	0	1	0	50.2793	-0.084771	-0.0845844	-0.00203022	3	4.12176e-06	53	4.8201	1.71725e-07
2	0	0	1	0	50.7493	-0.131772	-0.131523	-0.0014951	3	3.25232e-06	53	5.2901	1.96641e-07
2	0	0	1	0	51.2194	-0.178773	-0.178479	-0.00083405	3	2.74589e-06	53	5.7602	1.4886e-07
2	0	0	1	0	51.6894	-0.225774	-0.22545	-0.000740824	3	2.37946e-06	53	6.2302	1.67019e-07
2	0	0	1	0	52.1594	-0.272775	-0.272465	-0.000687036	3	2.04299e-06	53	6.7002	1.87193e-07
2	0	0	1	0	52.6294	-0.319775	-0.319456	-0.000616354	3	1.73676e-06	53	7.1702	1.96898e-07
2	0	0	1	0	53.0994	-0.366776	-0.366458	-0.000529424	3	1.46629e-06	53	7.6402	1.94012e-07
2	0	0	1	0	53.5694	-0.413777	-0.41348	-0.00044852	3	1.23335e-06	53	8.1102	1.85454e-07
2	0	0	1	0	54.0694	-0.463778	-0.463461	-0.000369336	3	1.0267e-06	54	8.6102	1.71173e-07
2	0	0	1	0	54.5394	-0.510779	-0.510509	-0.000311438	3	8.66005e-07	54	9.0802	1.58992e-07
2	0	0	1	0	55.0094	-0.55778	-0.557487	-0.000262931	3	7.32681e-07	54	9.5502	1.4658e-07
2	0	0	1	0	55.4316	-0.600006	-0.599722	-0.00022255	3	6.31911e-07	54	9.9724	1.33468e-07