File: test_trajectories/cyclic_voltammetry/biologic3.txt
Ewe/V	<I>/mA	cycle number	time/s
0.0310427	-0.00619543	1	624.609
0.0169954	-0.00423635	1	624.644
0.000994961	-0.00391941	1	624.684
-0.026994	-0.00378744	1	624.754
-0.0429919	-0.00376756	1	624.794
-0.0589817	-0.00377463	1	624.834
-0.0749827	-0.00378861	1	624.874
-0.09099	-0.00380444	1	624.914
-0.106989	-0.00381966	1	624.954
-0.123001	-0.00382996	1	624.994
-0.138997	-0.00384215	1	625.034
-0.154998	-0.00385624	1	625.074
-0.170984	-0.00387594	1	625.114
-0.186993	-0.00390345	1	625.154
-0.199849	-0.00394264	1	625.186
-0.193778	0.00282639	2	625.202
-0.171754	0.00311901	2	625.257
-0.149772	0.00324954	2	625.312
-0.133772	0.00328833	2	625.352
-0.10579	0.00334985	2	625.422
-0.0897825	0.00336888	2	625.462
-0.0737865	0.00337702	2	625.502
-0.0577961	0.00337837	2	625.542
-0.0417947	0.00337928	2	625.582
-0.0257904	0.00338925	2	625.622
-0.00977255	0.00337223	2	625.662
0.00622648	0.00336959	2	625.702
0.0222238	0.00336786	2	625.742
0.0382358	0.00336709	2	625.782
0.0542336	0.00336779	2	625.822
0.0702313	0.0033567	2	625.862
0.0862302	0.00335718	2	625.902
0.102229	0.00335199	2	625.942
0.118231	0.00334638	2	625.982
0.134225	0.00333397	2	626.022
0.150232	0.00333212	2	626.062
0.166223	0.00332642	2	626.102
0.182235	0.00332541	2	626.142
0.198113	0.00331936	2	626.182
0.198394	-0.000935273	2	626.192
0.170019	-0.00285624	2	626.262
0.154022	-0.0029552	2	626.302
0.126059	-0.0030602	2	626.372
0.110049	-0.00310442	2	626.412
0.09405	-0.00315383	2	626.452
0.0780572	-0.00320355	2	626.492
0.0620482	-0.00324857	2	626.532
0.0460464	-0.00329518	2	626.572
0.0300624	-0.00334263	2	626.612
0.0140351	-0.00338561	2	626.652
-0.0019602	-0.00343001	2	626.692
-0.0179582	-0.00346357	2	626.732
-0.0339776	-0.00349969	2	626.772
-0.0499661	-0.00352932	2	626.812
-0.0659663	-0.00355611	2	626.852
-0.0819703	-0.00358614	2	626.892
-0.0979642	-0.00360516	2	626.932
-0.113971	-0.00362419	2	626.972
-0.129969	-0.00365242	2	627.012
-0.145958	-0.00366959	2	627.052
-0.161972	-0.00369876	2	627.092
-0.177953	-0.00373823	2	627.132
-0.19396	-0.00378702	2	627.172
-0.200055	-0.00378402	3	627.187
-0.185781	0.00305278	3	627.222
-0.163766	0.00321405	3	627.277
-0.141783	0.0032929	3	627.332
-0.125779	0.0033203	3	627.372
-0.0977983	0.00336538	3	627.442
-0.0818048	0.00337452	3	627.482
-0.0657979	0.00337348	3	627.522
-0.0497877	0.00338103	3	627.562
-0.033799	0.00337867	3	627.602
-0.017794	0.00337462	3	627.642
-0.00178611	0.00336792	3	627.682
0.0142109	0.0033625	3	627.722
0.0302227	0.00337127	3	627.762
0.0462308	0.00335621	3	627.802
0.0622239	0.00335164	3	627.842
0.0782278	0.00335855	3	627.882
0.0942196	0.00335088	3	627.922
0.110225	0.00334071	3	627.962
0.126228	0.00333766	3	628.002
0.142221	0.00333471	3	628.042
0.158225	0.00333224	3	628.082
0.174217	0.00333172	3	628.122
0.190221	0.00333017	3	628.162
0.200117	0.00330986	3	628.187
0.190039	-0.00261368	3	628.212
0.162025	-0.00289882	3	628.282
0.146017	-0.00297995	3	628.322
0.118045	-0.00307531	3	628.392
0.102054	-0.00312688	3	628.432
0.0860513	-0.00316918	3	628.472
0.0700503	-0.00321478	3	628.512
0.0540488	-0.00326371	3	628.552
0.0380447	-0.00331163	3	628.592
0.0220537	-0.00335087	3	628.632
0.0060405	-0.00339586	3	628.672
-0.00996333	-0.00343118	3	628.712
-0.0259765	-0.00347154	3	628.752
-0.0419765	-0.00349594	3	628.792
-0.0579684	-0.00352913	3	628.832
-0.0739739	-0.00355733	3	628.872
-0.0899755	-0.00357885	3	628.912
-0.105977	-0.00360039	3	628.952
-0.121966	-0.0036153	3	628.992
-0.137965	-0.0036415	3	629.032
-0.153973	-0.00367189	3	629.072
-0.169961	-0.00369376	3	629.112
-0.185961	-0.00373806	3	629.152
-0.199811	-0.00378191	3	629.187
-0.193774	0.00293294	4	629.203
-0.177781	0.00316362	4	629.243
-0.155782	0.00326142	4	629.298
-0.133782	0.00331271	4	629.353
-0.117777	0.00333584	4	629.393
-0.0897992	0.00337245	4	629.463
-0.0737965	0.0033774	4	629.503
-0.0577943	0.00337601	4	629.543
-0.0418043	0.00337353	4	629.583
-0.0258087	0.00337232	4	629.623
-0.00979455	0.00336861	4	629.663
0.00621213	0.00336489	4	629.703
0.0222161	0.00335702	4	629.743
0.0382216	0.00335655	4	629.783
0.0542197	0.00335437	4	629.823
0.0702293	0.00335428	4	629.863
0.0862302	0.00334894	4	629.903
0.102222	0.00334611	4	629.943
0.118222	0.00334131	4	629.983
0.134238	0.00333506	4	630.023
0.150217	0.00333296	4	630.063
0.166219	0.00333128	4	630.103
0.182216	0.00333193	4	630.143
0.198102	0.00332524	4	630.182
0.198384	-0.000923989	4	630.193
0.182049	-0.00272954	4	630.233
0.154014	-0.00294149	4	630.303
0.138025	-0.00300875	4	630.343
0.116035	-0.00306359	4	630.398
0.0940548	-0.00314105	4	630.453
0.0780495	-0.00318987	4	630.493
0.062037	-0.00323911	4	630.533
0.0460406	-0.00328388	4	630.573
0.0300512	-0.0033297	4	630.613
0.0140373	-0.00336828	4	630.653
-0.00196956	-0.00341395	4	630.693
-0.0179787	-0.0034445	4	630.733
-0.033983	-0.00347761	4	630.773
-0.0499784	-0.00350819	4	630.813
-0.0659768	-0.0035375	4	630.853
-0.0819774	-0.00355911	4	630.893
-0.0979711	-0.00358144	4	630.933
-0.113974	-0.00360244	4	630.973
-0.129969	-0.00362299	4	631.013
-0.145963	-0.00364177	4	631.053
-0.161968	-0.00367178	4	631.093
-0.177959	-0.00371418	4	631.133
-0.193962	-0.00375376	4	631.173
-0.200048	-0.00373901	5	631.188
-0.173763	0.00317879	5	631.253
-0.157774	0.00325758	5	631.293
-0.141776	0.00329978	5	631.333
-0.113801	0.00335077	5	631.403
-0.0977797	0.00336371	5	631.443
-0.0817898	0.00337037	5	631.483
-0.0657836	0.00337349	5	631.523
-0.0497961	0.00337504	5	631.563
-0.0337962	0.00337543	5	631.603
-0.017787	0.00336831	5	631.643
-0.00178479	0.00336931	5	631.683
0.0142226	0.00336089	5	631.723
0.0302415	0.00336364	5	631.763
0.0462332	0.00335326	5	631.803
0.062236	0.00334952	5	631.843
0.0782315	0.00335149	5	631.883
0.0942397	0.00334287	5	631.923
0.110235	0.00334098	5	631.963
0.126236	0.0033318	5	632.003
0.142232	0.00332963	5	632.043
0.158231	0.00333088	5	632.083
0.174225	0.00333291	5	632.123
0.190229	0.00333112	5	632.163
0.200075	0.00331724	5	632.188
0.19004	-0.00260831	5	632.213
0.174048	-0.00280313	5	632.253
0.146021	-0.00297021	5	632.323
0.130026	-0.0030346	5	632.363
0.10804	-0.00308905	5	632.418
0.0860525	-0.00316284	5	632.473
0.0700522	-0.00321033	5	632.513
0.054053	-0.00325923	5	632.553
0.0380426	-0.00330873	5	632.593
0.0220386	-0.00335092	5	632.633
0.00603968	-0.00338946	5	632.673
-0.00995986	-0.0034215	5	632.713
-0.0259704	-0.00345821	5	632.753
-0.0419669	-0.00349418	5	632.793
-0.0579624	-0.00352009	5	632.833
-0.0739767	-0.00354388	5	632.873
-0.0899738	-0.00356642	5	632.913
-0.105973	-0.0035905	5	632.953
-0.121983	-0.0036085	5	632.993
-0.137972	-0.0036283	5	633.033
-0.153967	-0.00365011	5	633.073
-0.169964	-0.00368349	5	633.113
-0.185963	-0.00372155	5	633.153
-0.199857	-0.00377006	5	633.188
-0.193781	0.00294257	5	633.203
-0.165767	0.00322093	5	633.273
-0.149775	0.0032852	5	633.313
-0.133772	0.00332015	5	633.353
-0.105808	0.00336016	5	633.423
-0.0898048	0.00336676	5	633.463
-0.073804	0.00337024	5	633.503
-0.0577855	0.0033799	5	633.543
-0.0417893	0.00337574	5	633.583
-0.0258001	0.00337699	5	633.623
-0.00978807	0.00336229	5	633.663
0.00621798	0.0033618	5	633.703
0.0222135	0.00335639	5	633.743
0.0382263	0.00335157	5	633.783
0.0542331	0.00334994	5	633.823
0.0702306	0.00334838	5	633.863
0.0862308	0.0033455	5	633.903
0.10222	0.00334059	5	633.943
0.118221	0.00333515	5	633.983
0.134226	0.00332923	5	634.023
0.150219	0.00332987	5	634.063
0.166218	0.00332829	5	634.103
0.18222	0.00332794	5	634.143
0.198215	0.00331998	5	634.183
0.214217	0.00331608	5	634.223
0.230208	0.00330859	5	634.263
0.246223	0.00329605	5	634.303
0.252911	0.0032849	5	634.32