File: test_trajectories/cyclic_voltammetry/biologic7.txt
Ewe/V	<I>/mA	time/s	cycle number
0.0694205	0.00909104	3.8083	1
0.12937	0.00606102	15.8027	1
0.189358	0.00491138	27.7971	1
0.249346	0.00459785	39.7915	1
0.309467	0.00418265	51.8259	1
0.369459	0.00401358	63.8204	1
0.429451	0.0040867	75.8148	1
0.411439	0.00290452	87.6298	1
0.351483	0.00191289	99.6242	1
0.291537	0.0011904	111.619	1
0.231559	0.000329079	123.613	1
0.171263	-0.00136712	135.667	1
0.111286	-0.00273428	147.662	1
0.0513235	-0.00620682	159.656	1
-0.00865263	-0.00941262	171.651	1
-0.0687289	-0.0113271	183.665	1
-0.128678	-0.013445	195.659	1
-0.188673	-0.0155531	207.654	1
-0.248661	-0.0170912	219.648	1
-0.308582	-0.0199238	231.643	1
-0.368563	-0.0222065	243.637	1
-0.428544	-0.0232884	255.632	1
-0.488508	-0.0243239	267.626	1
-0.548455	-0.0246059	279.62	1
-0.608439	-0.0243468	291.615	1
-0.668423	-0.0245643	303.609	1
-0.728373	-0.0266883	315.604	1
-0.788337	-0.0347165	327.598	1
-0.848298	-0.0566955	339.593	1
-0.908286	-0.0774747	351.587	1
-0.968243	-0.0387607	363.581	1
-1.02824	-0.0229724	375.576	1
-1.08824	-0.0188526	387.57	1
-1.14818	-0.0166157	399.565	1
-1.20813	-0.0153581	411.559	1
-1.26809	-0.0151304	423.553	1
-1.32809	-0.0153181	435.548	1
-1.38802	-0.01581	447.542	1
-1.44802	-0.0167452	459.537	1
-1.50797	-0.0187561	471.531	1
-1.53335	-0.0190981	483.226	1
-1.47339	-0.0150714	495.221	1
-1.41341	-0.0130832	507.215	1
-1.35343	-0.0118885	519.209	1
-1.29347	-0.0110041	531.204	1
-1.23349	-0.0102514	543.198	1
-1.17353	-0.00952984	555.193	1
-1.11361	-0.00863046	567.187	1
-1.05362	-0.00733187	579.182	1
-0.993409	-0.00297974	591.216	1
-0.933351	0.0204471	603.23	1
-0.873429	0.0828135	615.225	1
-0.813426	0.0335149	627.219	1
-0.753437	0.0173007	639.214	1
-0.693514	0.0150385	651.208	1
-0.63352	0.0161081	663.202	1
-0.573524	0.0181115	675.197	1
-0.513555	0.020152	687.191	1
-0.453634	0.0206047	699.186	1
-0.393637	0.0212881	711.18	1
-0.333678	0.0216354	723.175	1
-0.273722	0.01979	735.169	1
-0.213765	0.0178909	747.163	1
-0.153733	0.0172148	759.158	1
-0.0937864	0.0168239	771.152	1
-0.0338291	0.0158872	783.147	1
0.0261755	0.0141561	795.141	1
0.0846318	0.0108222	806.836	2
0.144595	0.00665563	818.83	2
0.204599	0.00529106	830.824	2
0.26456	0.00480946	842.819	2
0.324682	0.00438623	854.853	2
0.384675	0.00415619	866.848	2
0.444646	0.00417939	878.842	2
0.396467	0.00270557	890.617	2
0.33648	0.00184717	902.612	2
0.276567	0.0011341	914.606	2
0.216552	0.000137404	926.6	2
0.156559	-0.00139984	938.595	2
0.0965931	-0.00328596	950.589	2
0.036643	-0.00702481	962.584	2
-0.0233325	-0.0101657	974.578	2
-0.0834306	-0.0120622	986.592	2
-0.143391	-0.0141441	998.587	2
-0.203374	-0.0154745	1010.58	2
-0.263367	-0.0171783	1022.58	2
-0.323293	-0.0199196	1034.57	2
-0.383273	-0.0215085	1046.56	2
-0.443264	-0.0225818	1058.56	2
-0.503226	-0.0233158	1070.55	2
-0.563199	-0.0233121	1082.55	2
-0.62317	-0.0229167	1094.54	2
-0.683141	-0.0234304	1106.54	2
-0.743098	-0.0268363	1118.53	2
-0.803052	-0.038107	1130.53	2
-0.863042	-0.0651479	1142.52	2
-0.922969	-0.0652234	1154.51	2
-0.982934	-0.0302642	1166.51	2
-1.04294	-0.0198308	1178.5	2
-1.1029	-0.0166899	1190.5	2
-1.16286	-0.0148411	1202.49	2
-1.22284	-0.0140392	1214.49	2
-1.2828	-0.0139939	1226.48	2
-1.34276	-0.0142554	1238.48	2
-1.40275	-0.0147454	1250.47	2
-1.46273	-0.0156835	1262.46	2
-1.52267	-0.0178608	1274.46	2
-1.51838	-0.0161	1286.21	2
-1.45843	-0.0131428	1298.21	2
-1.39844	-0.0115948	1310.2	2
-1.33847	-0.0106215	1322.2	2
-1.27854	-0.00985798	1334.19	2
-1.21853	-0.0091703	1346.19	2
-1.15857	-0.00847103	1358.18	2
-1.09865	-0.00755748	1370.17	2
-1.03866	-0.0060804	1382.17	2
-0.978538	-7.81702e-05	1394.18	2
-0.918511	0.033529	1406.2	2
-0.85855	0.0700414	1418.19	2
-0.798561	0.0276401	1430.19	2
-0.738578	0.0160258	1442.18	2
-0.678673	0.0150862	1454.18	2
-0.618649	0.0163263	1466.17	2
-0.558713	0.0182559	1478.16	2
-0.498747	0.0197845	1490.16	2
-0.438741	0.0200956	1502.15	2
-0.378779	0.0204717	1514.15	2
-0.318802	0.0203222	1526.14	2
-0.258842	0.0185853	1538.14	2
-0.198854	0.0177133	1550.13	2
-0.138874	0.017103	1562.13	2
-0.0789124	0.0162223	1574.12	2
-0.0189594	0.0154222	1586.11	2
0.0410608	0.0132393	1598.11	2
0.0996096	0.0092212	1609.82	3
0.159571	0.00560964	1621.82	3
0.219559	0.00472446	1633.81	3
0.279628	0.00432077	1645.83	3
0.339535	0.00401367	1657.82	3
0.399553	0.00386647	1669.82	3
0.441428	0.00349374	1681.61	3
0.381475	0.00231356	1693.6	3
0.321509	0.00157118	1705.6	3
0.26154	0.000905079	1717.59	3
0.201533	-0.000187597	1729.59	3
0.141567	-0.00149689	1741.58	3
0.0815948	-0.00404539	1753.58	3
0.0216299	-0.00777821	1765.57	3
-0.0384493	-0.0102491	1777.59	3
-0.0984366	-0.0124843	1789.58	3
-0.158355	-0.0143348	1801.57	3
-0.218389	-0.0154758	1813.57	3
-0.278323	-0.0176202	1825.56	3
-0.338296	-0.0201458	1837.56	3
-0.398257	-0.0213088	1849.55	3
-0.458232	-0.0223093	1861.55	3
-0.518186	-0.0227173	1873.54	3
-0.578143	-0.0223775	1885.54	3
-0.638159	-0.0221414	1897.53	3
-0.698144	-0.0228596	1909.52	3
-0.758071	-0.0279347	1921.52	3
-0.818054	-0.0430695	1933.51	3
-0.878011	-0.072342	1945.51	3
-0.937966	-0.0519646	1957.5	3
-0.997947	-0.0250809	1969.5	3
-1.0579	-0.0178129	1981.49	3
-1.11794	-0.0153146	1993.48	3
-1.17787	-0.0137465	2005.48	3
-1.23782	-0.0132398	2017.47	3
-1.29782	-0.013302	2029.47	3
-1.35776	-0.0135756	2041.46	3
-1.41769	-0.0140705	2053.46	3
-1.4777	-0.0151142	2065.45	3
-1.53763	-0.0174878	2077.45	3
-1.50342	-0.0141027	2089.2	3
-1.44344	-0.0118479	2101.2	3
-1.38344	-0.0106274	2113.19	3
-1.32349	-0.0097947	2125.18	3
-1.26353	-0.00911738	2137.18	3
-1.20354	-0.00847517	2149.17	3
-1.14355	-0.00779558	2161.17	3
-1.08362	-0.00679812	2173.16	3
-1.02363	-0.00494877	2185.16	3
-0.963565	0.00380745	2197.17	3
-0.90352	0.0518737	2209.19	3
-0.843528	0.0554385	2221.18	3
-0.78354	0.0229666	2233.17	3
-0.723549	0.0153302	2245.17	3
-0.663616	0.0152542	2257.16	3
-0.603641	0.0164788	2269.16	3
-0.543679	0.0183959	2281.15	3
-0.483748	0.0195248	2293.15	3
-0.423759	0.0197364	2305.14	3
-0.363794	0.0199636	2317.13	3
-0.303829	0.0192298	2329.13	3
-0.243853	0.0181242	2341.12	3
-0.183839	0.0174339	2353.12	3
-0.123859	0.0166831	2365.11	3
-0.0639051	0.015893	2377.11	3
-0.00393181	0.0148382	2389.1	3
0.0546367	0.0120091	2400.82	4
0.1146	0.00763317	2412.81	4
0.174581	0.0048585	2424.8	4
0.234666	0.00426583	2436.82	4
0.294626	0.00393497	2448.81	4
0.354575	0.00371742	2460.81	4
0.414555	0.00365281	2472.8	4
0.426444	0.00294079	2484.6	4
0.366473	0.00200249	2496.59	4
0.306553	0.00135214	2508.59	4
0.246559	0.000694142	2520.58	4
0.186575	-0.000472095	2532.58	4
0.126578	-0.00172351	2544.57	4
0.0666309	-0.00486128	2556.56	4
0.00664122	-0.0084991	2568.56	4
-0.0534527	-0.0106926	2580.57	4
-0.113399	-0.0129027	2592.57	4
-0.173402	-0.0144117	2604.56	4
-0.233381	-0.0156763	2616.56	4
-0.293377	-0.0180432	2628.55	4
-0.353288	-0.0201732	2640.54	4
-0.413292	-0.0213309	2652.54	4
-0.473245	-0.022303	2664.53	4
-0.533191	-0.022219	2676.53	4
-0.593159	-0.0219274	2688.52	4
-0.653164	-0.0215595	2700.52	4
-0.71314	-0.0230602	2712.51	4
-0.773076	-0.0301269	2724.51	4
-0.83307	-0.0491554	2736.5	4
-0.893016	-0.0746115	2748.49	4
-0.952965	-0.0408524	2760.49	4
-1.01297	-0.0216176	2772.48	4
-1.07295	-0.0163838	2784.48	4
-1.1329	-0.0142914	2796.47	4
-1.19286	-0.0130195	2808.47	4
-1.25281	-0.0127043	2820.46	4
-1.3128	-0.0128298	2832.46	4
-1.37274	-0.0131392	2844.45	4
-1.43274	-0.0136757	2856.44	4
-1.4927	-0.0148826	2868.44	4
-1.54835	-0.0169823	2880.19	4
-1.48842	-0.012786	2892.19	4
-1.42842	-0.0109925	2904.18	4
-1.36842	-0.00996504	2916.18	4
-1.30849	-0.00922183	2928.17	4
-1.24854	-0.00856762	2940.17	4
-4.49923	-0.000134337	2944.14	4