File: test_trajectories/cyclic_voltammetry/biologic5.txt
Ewe/V	<I>/mA	time/s	cycle number
-0.0868448	0.00371035	4.5492	1
-0.0149118	0.00288778	18.9464	1
0.0571225	0.00248161	33.3437	1
0.129142	0.00256388	47.741	1
0.201147	0.00286404	62.1382	1
0.273103	0.00348616	76.5354	1
0.33663	0.0041286	90.6732	1
0.264699	0.00132395	105.07	1
0.192745	0.000178608	119.468	1
0.12075	-0.000431802	133.865	1
0.048747	-0.000769475	148.262	1
-0.0232295	-0.00127975	162.659	1
-0.0952192	-0.00387862	177.057	1
-0.167102	-0.0100647	191.454	1
-0.239261	-0.0114465	205.871	1
-0.311265	-0.0139629	220.268	1
-0.383263	-0.0179427	234.666	1
-0.455276	-0.0239794	249.063	1
-0.527242	-0.0293583	263.46	1
-0.599232	-0.0298256	277.857	1
-0.671196	-0.0293069	292.255	1
-0.743211	-0.0287313	306.652	1
-0.81519	-0.0309689	321.049	1
-0.887179	-0.0368928	335.446	1
-0.959128	-0.0497805	349.844	1
-1.03108	-0.0730111	364.241	1
-1.10302	-0.0502777	378.638	1
-1.1751	-0.0311976	393.035	1
-1.24712	-0.0238872	407.432	1
-1.31905	-0.0219724	421.83	1
-1.29012	-0.016581	435.868	1
-1.21818	-0.013492	450.265	1
-1.14619	-0.00940714	464.662	1
-1.0742	0.00970314	479.079	1
-1.0021	0.0605912	493.496	1
-0.930055	0.0215835	507.894	1
-0.858048	0.0159575	522.291	1
-0.786064	0.017542	536.688	1
-0.714115	0.0200219	551.085	1
-0.642135	0.0248426	565.483	1
-0.57013	0.025805	579.88	1
-0.49817	0.0269587	594.277	1
-0.426164	0.0240651	608.674	1
-0.354204	0.0216831	623.072	1
-0.282187	0.017599	637.469	1
-0.210222	0.0169585	651.866	1
-0.138168	0.0158349	666.263	1
-0.067927	0.0120298	680.321	2
0.00410721	0.00843917	694.718	2
0.0760809	0.00745917	709.115	2
0.148063	0.00703996	723.512	2
0.220056	0.00670451	737.91	2
0.29203	0.00673089	752.307	2
0.317751	0.00513334	766.465	2
0.245618	0.00249991	780.882	2
0.173633	0.00106214	795.279	2
0.101652	0.000172421	809.676	2
0.0296845	-0.000473046	824.074	2
-0.0422822	-0.00154133	838.471	2
-0.114246	-0.00630364	852.868	2
-0.186362	-0.0104532	867.285	2
-0.258371	-0.0122709	881.683	2
-0.330357	-0.0150124	896.08	2
-0.402347	-0.0187291	910.477	2
-0.474332	-0.0245538	924.874	2
-0.546276	-0.0288356	939.272	2
-0.618302	-0.0286618	953.669	2
-0.690291	-0.0281318	968.066	2
-0.762277	-0.0272158	982.463	2
-0.834312	-0.0311805	996.861	2
-0.90624	-0.0372009	1011.26	2
-0.978194	-0.0535653	1025.65	2
-1.05016	-0.0688596	1040.05	2
-1.12215	-0.0411212	1054.45	2
-1.19413	-0.0266119	1068.85	2
-1.26611	-0.0208569	1083.24	2
-1.33813	-0.0192577	1097.64	2
-1.27017	-0.0133432	1111.86	2
-1.19816	-0.0105945	1126.26	2
-1.12611	-0.00451422	1140.66	2
-1.05402	0.030604	1155.09	2
-0.982042	0.0379199	1169.49	2
-0.910075	0.019012	1183.89	2
-0.838052	0.0161638	1198.28	2
-0.766064	0.0181344	1212.68	2
-0.694071	0.0207102	1227.08	2
-0.622101	0.0249471	1241.47	2
-0.55008	0.0259061	1255.87	2
-0.478135	0.0255963	1270.27	2
-0.40613	0.0222963	1284.67	2
-0.334123	0.0202885	1299.06	2
-0.262159	0.0171741	1313.46	2
-0.190179	0.0165112	1327.86	2
-0.11819	0.0144251	1342.25	2
-0.0479015	0.00996653	1356.31	3
0.0240186	0.00723259	1370.71	3
0.0961008	0.00660437	1385.11	3
0.168006	0.00637611	1399.5	3
0.24007	0.0062253	1413.9	3
0.31196	0.00648106	1428.3	3
0.297471	0.00403618	1442.5	3
0.225503	0.00204363	1456.89	3
0.153547	0.000794822	1471.29	3
0.0815722	-3.6256e-05	1485.69	3
0.00958104	-0.000713634	1500.08	3
-0.0623846	-0.0023277	1514.48	3
-0.134279	-0.00840385	1528.88	3
-0.206499	-0.010989	1543.3	3
-0.278505	-0.0128854	1557.69	3
-0.350442	-0.0154683	1572.09	3
-0.422414	-0.0198591	1586.49	3
-0.494453	-0.0256603	1600.89	3
-0.566404	-0.0282181	1615.28	3
-0.638368	-0.0276327	1629.68	3
-0.710362	-0.0263818	1644.08	3
-0.782374	-0.0260417	1658.47	3
-0.854387	-0.0310493	1672.87	3
-0.926302	-0.0386284	1687.27	3
-0.998289	-0.0584926	1701.67	3
-1.07027	-0.0604785	1716.06	3
-1.14227	-0.0338337	1730.46	3
-1.21424	-0.0227406	1744.86	3
-1.28624	-0.018588	1759.26	3
-1.32214	-0.0147556	1773.45	3
-1.25013	-0.0111419	1787.85	3
-1.17818	-0.00828839	1802.25	3
-1.10598	0.00161455	1816.68	3
-1.03394	0.0561315	1831.1	3
-0.961917	0.0305091	1845.5	3
-0.889951	0.0173174	1859.9	3
-0.817951	0.0163422	1874.29	3
-0.74593	0.0188656	1888.69	3
-0.673987	0.0220113	1903.09	3
-0.602016	0.0246961	1917.49	3
-0.530044	0.0257187	1931.88	3
-0.458066	0.0236266	1946.28	3
-0.38607	0.0213445	1960.68	3
-0.314102	0.019216	1975.07	3
-0.242101	0.0167888	1989.47	3
-0.170109	0.0158583	2003.87	3
-0.0998889	0.0127125	2017.91	4
-0.027903	0.00821583	2032.3	4
0.0440221	0.00624247	2046.7	4
0.116089	0.00564225	2061.1	4
0.188083	0.00541555	2075.5	4
0.260006	0.00552115	2089.89	4
0.332072	0.00613989	2104.29	4
0.277635	0.00309228	2118.47	4
0.205634	0.00153583	2132.86	4
0.133668	0.000482504	2147.26	4
0.0616822	-0.000290741	2161.66	4
-0.0102936	-0.00107908	2176.06	4
-0.0822748	-0.00351883	2190.45	4
-0.154149	-0.00977221	2204.85	4
-0.226405	-0.0114937	2219.27	4
-0.298409	-0.0136409	2233.67	4
-0.370349	-0.0166096	2248.06	4
-0.442327	-0.0209382	2262.46	4
-0.514328	-0.0261067	2276.86	4
-0.586314	-0.0277879	2291.25	4
-0.658288	-0.0268313	2305.65	4
-0.730269	-0.0252704	2320.05	4
-0.802285	-0.0262196	2334.45	4
-0.874284	-0.0316615	2348.84	4
-0.946254	-0.0412715	2363.24	4
-1.0182	-0.0631401	2377.64	4
-1.09018	-0.0509993	2392.03	4
-1.16218	-0.0290431	2406.43	4
-1.23415	-0.0203488	2420.83	4
-1.30613	-0.0173533	2435.23	4
-1.30215	-0.0126976	2449.44	4
-1.23012	-0.00993768	2463.84	4
-1.15817	-0.00635051	2478.24	4
-1.08586	0.0107965	2492.7	4
-1.01397	0.0591705	2507.09	4
-0.941967	0.0247747	2521.49	4
-0.869936	0.0161277	2535.89	4
-0.797973	0.0162632	2550.28	4
-0.725964	0.0188694	2564.68	4
-0.654022	0.0227655	2579.08	4
-0.582013	0.0237098	2593.48	4
-0.510053	0.0252319	2607.87	4
-0.438049	0.0219885	2622.27	4
-0.366036	0.0208405	2636.67	4
-0.294072	0.0183755	2651.07	4
-0.222128	0.0162745	2665.46	4
-0.150092	0.0148027	2679.86	4
-0.0798994	0.0107573	2693.9	5
-0.00789762	0.00692712	2708.29	5
0.0641235	0.0056018	2722.69	5
0.136104	0.0051837	2737.09	5
0.208125	0.00511938	2751.49	5
0.280113	0.0053915	2765.88	5
0.329757	0.00494575	2780.04	5
0.257652	0.00252961	2794.46	5
0.185654	0.0012041	2808.86	5
0.113624	0.000248711	2823.25	5
0.0416993	-0.000502089	2837.65	5
-0.0303077	-0.00144554	2852.05	5
-0.102258	-0.00505792	2866.44	5
-0.174329	-0.0104724	2880.85	5
-0.246404	-0.0119526	2895.26	5
-0.31838	-0.0144277	2909.66	5
-0.390353	-0.0173836	2924.05	5
-0.46233	-0.0221497	2938.45	5
-0.534329	-0.0267132	2952.85	5
-0.606324	-0.0269874	2967.25	5
-0.678301	-0.0258694	2981.64	5
-0.750297	-0.0245776	2996.04	5
-0.822294	-0.0271195	3010.44	5
-0.894278	-0.0330414	3024.83	5
-0.96622	-0.0455896	3039.23	5
-1.03818	-0.0648914	3053.63	5
-1.1102	-0.0424404	3068.03	5
-1.18217	-0.0257855	3082.42	5
-1.25414	-0.0189812	3096.82	5
-1.32614	-0.0167665	3111.22	5
-1.28216	-0.0116214	3125.44	5
-1.21016	-0.00910364	3139.83	5
-1.138	-0.00388392	3154.27	5
-1.0659	0.0250766	3168.69	5
-0.993916	0.0420891	3183.08	5
-0.92192	0.0208446	3197.48	5
-0.849962	0.0158102	3211.88	5
-0.777934	0.0173144	3226.28	5
-0.705982	0.0195627	3240.67	5
-0.634034	0.0233894	3255.07	5
-0.562028	0.0243447	3269.47	5
-0.49006	0.024475	3283.87	5
-0.418037	0.0213107	3298.26	5
-0.346036	0.02086	3312.66	5
-0.274125	0.0175227	3327.06	5
-0.20211	0.0157437	3341.45	5
-0.130135	0.0134986	3355.85	5